Sample        Spectrum      Background    Delta
 0            -169.4988     -4            -166 
 1            -211.9987     -4            -209 
 2            -229.9995     -4            -227 
 3            -241.9996     -4            -239 
 4            -59.50557     -4            -56 
 5            -228.4948     -4            -225 
 6            -152.0023     -4            -149 
 7            -131.5006     -4            -128 
 8            -161.4991     -4            -158 
 9            -144.5005     -4            -141 
 10           -181.4989     -4            -178 
 11           -73.00331     -4            -70 
 12           -183.9966     -4            -181 
 13           -128.5017     -4            -125 
 14           -105.5007     -4            -102 
 15           -244.9957     -4            -242 
 16           -132.0034     -4            -129 
 17           -123.5003     -4            -120 
 18           -83.00124     -4            -80 
 19           -115.999      -4            -113 
 20           -182.998      -4            -180 
 21           -194.4996     -4            -191 
 22           -214.4994     -4            -211 
 23           -141.0022     -4            -138 
 24           -193.9984     -4            -191 
 25           -143.5015     -4            -140 
 26           -122.0007     -4            -119 
 27           -194.9978     -4            -192 
 28           -196.5        -4            -193 
 29           -166.0009     -4            -163 
 30           -153.5004     -4            -150 
 31           -166.4996     -4            -163 
 32           -125.5013     -4            -122 
 33           -226.9969     -4            -224 
 34           -93.00409     -4            -90 
 35           -155.9981     -4            -153 
 36           -139.0005     -4            -136 
 37           -82.50172     -4            -79 
 38           -240.9952     -4            -238 
 39           -167.0023     -4            -164 
 40           -62.0032      -4            -59 
 41           -153.9972     -4            -151 
 42           -56.50298     -4            -53 
 43           -191.9959     -4            -189 
 44           -123.0021     -4            -120 
 45           -82.00125     -4            -79 
 46           -108.4992     -4            -105 
 47           -165.4983     -4            -162 
 48           -144.5006     -4            -141 
 49           -161.4995     -4            -158 
 50           -79.00252     -4            -76 
 51           -149.9978     -4            -147 
 52           -100.0015     -4            -97 
 53           -88.00037     -4            -85 
 54           -88.49998     -4            -85 
 55           -11.00237     -4            -8 
 56           -92.49751     -4            -89 
 57           -220.4961     -4            -217 
 58           -171.5015     -4            -168 
 59           -133.5012     -4            -130 
 60           -111.0007     -4            -108 
 61           -169.4982     -4            -166 
 62           -117.0016     -4            -114 
 63           -156.4988     -4            -153 
 64           -154.0001     -4            -151 
 65           -53.00308     -4            -50 
 66           -132.9976     -4            -130 
 67           -183.9984     -4            -181 
 68           -162.0007     -4            -159 
 69           -133.5009     -4            -130 
 70           -156.4993     -4            -153 
 71           -171.9995     -4            -169 
 72           -171          -4            -168 
 73           -49.50371     -4            -46 
 74           -65.49951     -4            -62 
 75           -193.9961     -4            -191 
 76           -125.5021     -4            -122 
 77           -63.50189     -4            -60 
 78           -98.99892     -4            -96 
 79           -165.498      -4            -162 
 80           -128.0011     -4            -125 
 81           -147.4994     -4            -144 
 82           -79.50208     -4            -76 
 83           -67.50037     -4            -64 
 84           -61.0002      -4            -58 
 85           -140.4976     -4            -137 
 86           -104.0011     -4            -101 
 87           -32.0022      -4            -29 
 88            17.49849     -4             21 
 89            67.99846     -4             71 
 90            79.49965     -4             83 
 91            208.996      -4             212 
 92            309.9969     -4             313 
 93            533.4932     -4             537 
 94            588.9982     -4             592 
 95            636.4985     -4             640 
 96            903.9918     -4             907 
 97            1073.995     -4             1077 
 98            1254.994     -4             1258 
 99            1286.499     -4             1290 
 100           1568.491     -4             1572 
 101           1677.997     -4             1681 
 102           1959.991     -4             1963 
 103           2300.99      -4             2304 
 104           2516.993     -4             2520 
 105           2790.991     -4             2794 
 106           2986.994     -4             2990 
 107           3164.495     -4             3168 
 108           3668.484     -4             3672 
 109           3733.498     -4             3737 
 110           3999.492     -4             4003 
 111           4466.485     -4             4470 
 112           4912.486     -4             4916 
 113           5367.986     -4             5371 
 114           5806.986     -4             5810 
 115           6454.48      -4             6458 
 116           6921.487     -4             6925 
 117           7023.996     -4             7027 
 118           7062.999     -4             7066 
 119           7424.489     -4             7428 
 120           7755.99      -4             7759 
 121           8546.977     -4             8550 
 122           9215.98      -4             9219 
 123           9985.976     -4             9989 
 124           11296.46     -4             11300 
 125           12338.97     -4             12342 
 126           13548.96     -4             13552 
 127           14688.46     -4             14692 
 128           15329.48     -4             15333 
 129           16146.48     -4             16150 
 130           16644.98     -4             16648 
 131           16849.49     -4             16853 
 132           17543.98     -4             17547 
 133           18615.97     -4             18619 
 134           20589.94     -4             20593 
 135           22282.45     -4             22286 
 136           23810.95     -4             23814 
 137           24264.99     -4             24268 
 138           23867.51     -4             23871 
 139           23787.5      -4             23791 
 140           23947        -4             23950 
 141           25186.96     -4             25190 
 142           26568.96     -4             26572 
 143           28174.95     -4             28178 
 144           29934.95     -4             29938 
 145           31207.46     -4             31211 
 146           30905.01     -4             30908 
 147           30070.02     -4             30073 
 148           30191        -4             30194 
 149           29976.51     -4             29980 
 150           31118.96     -4             31122 
 151           34963.39     -4             34967 
 152           40116.84     -4             40120 
 153           45408.84     -4             45412 
 154           50903.83     -4             50907 
 155           55322.37     -4             55326 
 156           57707.43     -4             57711 
 157           59219.45     -4             59223 
 158           59526.99     -4             59530 
 159           60794.96     -4             60798 
 160           61327.48     -4             61331 
 161           63145.94     -4             63149 
 162           64697.46     -4             64701 
 163           66635.95     -4             66639 
 164           68197.95     -4             68201 
 165           71026.41     -4             71030 
 166           71996.47     -4             72000 
 167           72627.48     -4             72631 
 168           73105.98     -4             73109 
 169           74379.95     -4             74383 
 170           74262        -4             74265 
 171           74884.98     -4             74888 
 172           75054.99     -4             75058 
 173           75402.48     -4             75406 
 174           75243.51     -4             75247 
 175           74444.52     -4             74448 
 176           72080.06     -4             72083 
 177           71364.02     -4             71367 
 178           71753.48     -4             71757 
 179           72676.48     -4             72680 
 180           75943.91     -4             75947 
 181           79697.88     -4             79701 
 182           81706.93     -4             81710 
 183           83805.45     -4             83809 
 184           84763.48     -4             84767 
 185           86364.46     -4             86368 
 186           88599.93     -4             88603 
 187           91415.91     -4             91419 
 188           92931.95     -4             92935 
 189           94241.96     -4             94245 
 190           96366.94     -4             96370 
 191           97977.95     -4             97981 
 192           100610.4     -4             100614 
 193           102473.4     -4             102477 
 194           103215       -4             103218 
 195           103496       -4             103499 
 196           103857.5     -4             103861 
 197           104700       -4             104703 
 198           105390       -4             105393 
 199           106123       -4             106126 
 200           107099.5     -4             107103 
 201           107857.5     -4             107861 
 202           109007.5     -4             109011 
 203           109232       -4             109235 
 204           109592       -4             109595 
 205           109519.5     -4             109523 
 206           109349.5     -4             109353 
 207           109819.5     -4             109823 
 208           109383.5     -4             109387 
 209           110223       -4             110226 
 210           110956.5     -4             110960 
 211           112349       -4             112352 
 212           112559       -4             112562 
 213           113424       -4             113427 
 214           114682       -4             114685 
 215           114591       -4             114594 
 216           116105       -4             116108 
 217           116398       -4             116401 
 218           116580.5     -4             116584 
 219           114725.6     -4             114729 
 220           111126.6     -4             111130 
 221           108799.6     -4             108803 
 222           108581       -4             108584 
 223           109864.5     -4             109868 
 224           111100.5     -4             111104 
 225           112553       -4             112556 
 226           114773.4     -4             114777 
 227           115208       -4             115211 
 228           115782       -4             115785 
 229           115800.5     -4             115804 
 230           116762.5     -4             116766 
 231           113934.5     -4             113938 
 232           113906       -4             113909 
 233           113103.5     -4             113107 
 234           113520.5     -4             113524 
 235           114650       -4             114653 
 236           115025       -4             115028 
 237           116039.5     -4             116043 
 238           116964.5     -4             116968 
 239           116943       -4             116946 
 240           116477       -4             116480 
 241           115900.5     -4             115904 
 242           114770.5     -4             114774 
 243           113474       -4             113477 
 244           110732.5     -4             110736 
 245           109813.5     -4             109817 
 246           109660.5     -4             109664 
 247           110877.5     -4             110881 
 248           112160       -4             112163 
 249           113221.5     -4             113225 
 250           113797       -4             113800 
 251           113912       -4             113915 
 252           114100.5     -4             114104 
 253           114023.5     -4             114027 
 254           116443.5     -4             116447 
 255           116631.5     -4             116635 
 256           116443.5     -4             116447 
 257           116623       -4             116626 
 258           116711.5     -4             116715 
 259           117507.5     -4             117511 
 260           116995       -4             116998 
 261           115946       -4             115949 
 262           115577.5     -4             115581 
 263           115068       -4             115071 
 264           115486.5     -4             115490 
 265           116342       -4             116345 
 266           116231.5     -4             116235 
 267           116292.5     -4             116296 
 268           116278       -4             116281 
 269           117011.5     -4             117015 
 270           116012.5     -4             116016 
 271           115845       -4             115848 
 272           116674       -4             116677 
 273           115769       -4             115772 
 274           115906       -4             115909 
 275           114759.5     -4             114763 
 276           113639       -4             113642 
 277           113878.5     -4             113882 
 278           113404       -4             113407 
 279           113414.5     -4             113418 
 280           113340       -4             113343 
 281           113307.5     -4             113311 
 282           112951.5     -4             112955 
 283           112419       -4             112422 
 284           112324       -4             112327 
 285           112568       -4             112571 
 286           112816       -4             112819 
 287           113026       -4             113029 
 288           113256.5     -4             113260 
 289           112915.5     -4             112919 
 290           112532.5     -4             112536 
 291           112998.5     -4             113002 
 292           112502       -4             112505 
 293           113102.5     -4             113106 
 294           113665.5     -4             113669 
 295           113618.5     -4             113622 
 296           113795.5     -4             113799 
 297           112141       -4             112144 
 298           111422.5     -4             111426 
 299           109994.5     -4             109998 
 300           109581.5     -4             109585 
 301           110202       -4             110205 
 302           110661.5     -4             110665 
 303           110903.5     -4             110907 
 304           110441.5     -4             110445 
 305           110529       -4             110532 
 306           110375       -4             110378 
 307           109547.5     -4             109551 
 308           108819       -4             108822 
 309           108180       -4             108183 
 310           108743       -4             108746 
 311           109429       -4             109432 
 312           109020.5     -4             109024 
 313           107526.5     -4             107530 
 314           107991       -4             107994 
 315           106456.5     -4             106460 
 316           106378       -4             106381 
 317           105405.5     -4             105409 
 318           104404       -4             104407 
 319           104733.5     -4             104737 
 320           104792       -4             104795 
 321           105101.5     -4             105105 
 322           105047       -4             105050 
 323           104610.5     -4             104614 
 324           103730       -4             103733 
 325           103660       -4             103663 
 326           103319       -4             103322 
 327           102629.5     -4             102633 
 328           102594.5     -4             102598 
 329           101250       -4             101253 
 330           101779       -4             101782 
 331           101822.5     -4             101826 
 332           101279.5     -4             101283 
 333           101723       -4             101726 
 334           101860.5     -4             101864 
 335           102531       -4             102534 
 336           102417.5     -4             102421 
 337           100614       -4             100617 
 338           101327.5     -4             101331 
 339           100645.5     -4             100649 
 340           101214       -4             101217 
 341           99983        -4             99986 
 342           100007.5     -4             100011 
 343           99214.5      -4             99218 
 344           99121.5      -4             99125 
 345           99174        -4             99177 
 346           98158.5      -4             98162 
 347           97118.5      -4             97122 
 348           94356        -4             94359 
 349           92967        -4             92970 
 350           93217.5      -4             93221 
 351           95322.5      -4             95326 
 352           95996.5      -4             96000 
 353           96840.5      -4             96844 
 354           97449        -4             97452 
 355           96887.5      -4             96891 
 356           97642.5      -4             97646 
 357           96726.5      -4             96730 
 358           96511.5      -4             96515 
 359           96421.5      -4             96425 
 360           95841        -4             95844 
 361           95046.5      -4             95050 
 362           95139        -4             95142 
 363           94936.5      -4             94940 
 364           94693.5      -4             94697 
 365           94437        -4             94440 
 366           94135.5      -4             94139 
 367           93423        -4             93426 
 368           93056        -4             93059 
 369           92500        -4             92503 
 370           89973.5      -4             89977 
 371           86294        -4             86297 
 372           83581.5      -4             83585 
 373           81687        -4             81690 
 374           83107.5      -4             83111 
 375           84333.5      -4             84337 
 376           85498        -4             85501 
 377           86654.5      -4             86658 
 378           87215.5      -4             87219 
 379           87770.5      -4             87774 
 380           86695.5      -4             86699 
 381           86621        -4             86624 
 382           85711.5      -4             85715 
 383           85123.5      -4             85127 
 384           85547        -4             85550 
 385           84931.5      -4             84935 
 386           84846        -4             84849 
 387           84580.5      -4             84584 
 388           84079        -4             84082 
 389           83732        -4             83735 
 390           83497        -4             83500 
 391           82973        -4             82976 
 392           82709.5      -4             82713 
 393           80503        -4             80506 
 394           78274.5      -4             78278 
 395           77825        -4             77828 
 396           77403.5      -4             77407 
 397           77235        -4             77238 
 398           76771.5      -4             76775 
 399           76417.5      -4             76421 
 400           76634.5      -4             76638 
 401           75977.5      -4             75981 
 402           74669.5      -4             74673 
 403           74657.5      -4             74661 
 404           75050.5      -4             75054 
 405           75408.5      -4             75412 
 406           74921.5      -4             74925 
 407           74901.5      -4             74905 
 408           75028        -4             75031 
 409           74813        -4             74816 
 410           73332        -4             73335 
 411           72393        -4             72396 
 412           71480        -4             71483 
 413           71941.5      -4             71945 
 414           71428        -4             71431 
 415           71106.5      -4             71110 
 416           70740        -4             70743 
 417           69845.5      -4             69849 
 418           69764        -4             69767 
 419           69336.5      -4             69340 
 420           68305.5      -4             68309 
 421           68299        -4             68302 
 422           67760.5      -4             67764 
 423           65582.5      -4             65586 
 424           58757.5      -4             58761 
 425           50494        -4             50497 
 426           42834.5      -4             42838 
 427           39137.5      -4             39141 
 428           40265.5      -4             40269 
 429           44413.5      -4             44417 
 430           48945.5      -4             48949 
 431           53546.5      -4             53550 
 432           56942.5      -4             56946 
 433           59115.5      -4             59119 
 434           60066        -4             60069 
 435           60702.5      -4             60706 
 436           59791        -4             59794 
 437           59030        -4             59033 
 438           58725        -4             58728 
 439           58770.5      -4             58774 
 440           59481.5      -4             59485 
 441           57742.5      -4             57746 
 442           57185.5      -4             57189 
 443           56607.5      -4             56611 
 444           56453.5      -4             56457 
 445           56434.5      -4             56438 
 446           55741        -4             55744 
 447           54613.5      -4             54617 
 448           53844.5      -4             53848 
 449           52748        -4             52751 
 450           52159.5      -4             52163 
 451           52318.5      -4             52322 
 452           51994.5      -4             51998 
 453           51493        -4             51496 
 454           50387.5      -4             50391 
 455           49564        -4             49567 
 456           49656.5      -4             49660 
 457           49440.5      -4             49444 
 458           48630        -4             48633 
 459           48130        -4             48133 
 460           47079.5      -4             47083 
 461           46759.5      -4             46763 
 462           46052        -4             46055 
 463           45603.5      -4             45607 
 464           45712.5      -4             45716 
 465           44134        -4             44137 
 466           42896        -4             42899 
 467           41634        -4             41637 
 468           40719.5      -4             40723 
 469           41191        -4             41194 
 470           40849.5      -4             40853 
 471           40180        -4             40183 
 472           40182        -4             40185 
 473           39392        -4             39395 
 474           38989        -4             38992 
 475           38688.5      -4             38692 
 476           39131.5      -4             39135 
 477           38544.5      -4             38548 
 478           38402.5      -4             38406 
 479           37957.5      -4             37961 
 480           37005        -4             37008 
 481           36734.5      -4             36738 
 482           36432.5      -4             36436 
 483           36844.5      -4             36848 
 484           36915        -4             36918 
 485           36615.5      -4             36619 
 486           35707        -4             35710 
 487           35155        -4             35158 
 488           34363        -4             34366 
 489           34048        -4             34051 
 490           33502        -4             33505 
 491           33786.5      -4             33790 
 492           33208        -4             33211 
 493           31916.5      -4             31920 
 494           31287.5      -4             31291 
 495           30762.5      -4             30766 
 496           30231        -4             30234 
 497           30710        -4             30713 
 498           31477        -4             31480 
 499           31324.5      -4             31328 
 500           30879.5      -4             30883 
 501           30464.5      -4             30468 
 502           29633.5      -4             29637 
 503           28779        -4             28782 
 504           27591.5      -4             27595 
 505           27625        -4             27628 
 506           27679.5      -4             27683 
 507           28566        -4             28569 
 508           28375.5      -4             28379 
 509           28066.5      -4             28070 
 510           27724        -4             27727 
 511           26917.5      -4             26921 
 512           26534.5      -4             26538 
 513           25825.5      -4             25829 
 514           25922.5      -4             25926 
 515           25961        -4             25964 
 516           25874        -4             25877 
 517           25850        -4             25853 
 518           25373.5      -4             25377 
 519           24649.5      -4             24653 
 520           23938.5      -4             23942 
 521           23543.5      -4             23547 
 522           23104        -4             23107 
 523           23089.5      -4             23093 
 524           22502        -4             22505 
 525           22477.5      -4             22481 
 526           21718        -4             21721 
 527           21278        -4             21281 
 528           20579        -4             20582 
 529           19780.01     -4             19783 
 530           19216        -4             19219 
 531           19154        -4             19157 
 532           19454        -4             19457 
 533           19185.5      -4             19189 
 534           19030.5      -4             19034 
 535           18961.5      -4             18965 
 536           18542.5      -4             18546 
 537           18131        -4             18134 
 538           17579        -4             17582 
 539           17134.5      -4             17138 
 540           16600.51     -4             16604 
 541           16449.5      -4             16453 
 542           16515        -4             16518 
 543           16887        -4             16890 
 544           16587.5      -4             16591 
 545           16295.5      -4             16299 
 546           16267        -4             16270 
 547           15839.51     -4             15843 
 548           15190        -4             15193 
 549           14054.5      -4             14058 
 550           13121        -4             13124 
 551           12082.5      -4             12086 
 552           11104.5      -4             11108 
 553           10465.5      -4             10469 
 554           10280.5      -4             10284 
 555           10318.5      -4             10322 
 556           10651.5      -4             10655 
 557           10791        -4             10794 
 558           10612        -4             10615 
 559           10428        -4             10431 
 560           9982.005     -4             9985 
 561           9779.503     -4             9783 
 562           9499.003     -4             9502 
 563           9513.503     -4             9517 
 564           9520.006     -4             9523 
 565           9453.502     -4             9457 
 566           9488.501     -4             9492 
 567           9370.004     -4             9373 
 568           9170.502     -4             9174 
 569           9235.5       -4             9239 
 570           8741.503     -4             8745 
 571           8620.504     -4             8624 
 572           8335.004     -4             8338 
 573           8290.004     -4             8293 
 574           8207.005     -4             8210 
 575           8247.003     -4             8250 
 576           8276.001     -4             8279 
 577           8411.504     -4             8415 
 578           8316.004     -4             8319 
 579           8448.503     -4             8452 
 580           7926.503     -4             7930 
 581           7941.001     -4             7944 
 582           7647.506     -4             7651 
 583           7318.508     -4             7322 
 584           6974.5       -4             6978 
 585           6851.003     -4             6854 
 586           6621.004     -4             6624 
 587           6551.005     -4             6554 
 588           6634.003     -4             6637 
 589           6444         -4             6447 
 590           6412.002     -4             6415 
 591           6065.004     -4             6068 
 592           6022.506     -4             6026 
 593           5930         -4             5933 
 594           5660.504     -4             5664 
 595           5369.507     -4             5373 
 596           5290.505     -4             5294 
 597           5003.002     -4             5006 
 598           4785.002     -4             4788 
 599           4678.506     -4             4682 
 600           4539.999     -4             4543 
 601           4274.003     -4             4277 
 602           4227.504     -4             4231 
 603           4066.002     -4             4069 
 604           3916.999     -4             3920 
 605           3769         -4             3772 
 606           3617         -4             3620 
 607           3579.502     -4             3583 
 608           3404.004     -4             3407 
 609           3277.001     -4             3280 
 610           3090.5       -4             3094 
 611           2963.001     -4             2966 
 612           2846.503     -4             2850 
 613           2720.5       -4             2724 
 614           2665.501     -4             2669 
 615           2480.502     -4             2484 
 616           2351.002     -4             2354 
 617           2321.002     -4             2324 
 618           2211.005     -4             2214 
 619           2251.999     -4             2255 
 620           2132.999     -4             2136 
 621           1957.503     -4             1961 
 622           1954         -4             1957 
 623           1808.5       -4             1812 
 624           1824.501     -4             1828 
 625           1725         -4             1728 
 626           1693.005     -4             1696 
 627           1626.502     -4             1630 
 628           1525.501     -4             1529 
 629           1588.5       -4             1592 
 630           1503.003     -4             1506 
 631           1376         -4             1379 
 632           1425.5       -4             1429 
 633           1373.499     -4             1377 
 634           1463.498     -4             1467 
 635           1465.499     -4             1469 
 636           1460.5       -4             1464 
 637           1533.503     -4             1537 
 638           1357.498     -4             1361 
 639           1469.5       -4             1473 
 640           1388.495     -4             1392 
 641           1477.998     -4             1481 
 642           1448.501     -4             1452 
 643           1500.499     -4             1504 
 644           1422.001     -4             1425 
 645           1450.999     -4             1454 
 646           1528.004     -4             1531 
 647           1486.499     -4             1490 
 648           1407.501     -4             1411 
 649           1497.502     -4             1501 
 650           1426.501     -4             1430 
 651           1458.502     -4             1462 
 652           1516         -4             1519 
 653           1538.997     -4             1542 
 654           1485.001     -4             1488 
 655           1521.002     -4             1524 
 656           1558.998     -4             1562 
 657           1535.999     -4             1539 
 658           1519         -4             1522 
 659           1682.999     -4             1686 
 660           1755.496     -4             1759 
 661           1543.499     -4             1547 
 662           1678.499     -4             1682 
 663           1546.5       -4             1550 
 664           1681.998     -4             1685 
 665           1631.001     -4             1634 
 666           1743.001     -4             1746 
 667           1747.499     -4             1751 
 668           1693.002     -4             1696 
 669           1695.001     -4             1698 
 670           1806.001     -4             1809 
 671           1666         -4             1669 
 672           1688.499     -4             1692 
 673           1718.001     -4             1721 
 674           1794.998     -4             1798 
 675           1777.499     -4             1781 
 676           1813.499     -4             1817 
 677           1778         -4             1781 
 678           1806.5       -4             1810 
 679           1874.001     -4             1877 
 680           1859.502     -4             1863 
 681           1815.499     -4             1819 
 682           1850.5       -4             1854 
 683           1894.498     -4             1898 
 684           1797         -4             1800 
 685           1991.001     -4             1994 
 686           2031.498     -4             2035 
 687           1980.998     -4             1984 
 688           1873         -4             1876 
 689           1983.498     -4             1987 
 690           1962.499     -4             1966 
 691           1897.999     -4             1901 
 692           1861.002     -4             1864 
 693           1928.5       -4             1932 
 694           1903.001     -4             1906 
 695           1893.5       -4             1897 
 696           1980.001     -4             1983 
 697           1971.996     -4             1975 
 698           1949.999     -4             1953 
 699           2037.003     -4             2040 
 700           2146.499     -4             2150 
 701           2214.997     -4             2218 
 702           2174.499     -4             2178 
 703           2097.997     -4             2101 
 704           2067.998     -4             2071 
 705           2133.001     -4             2136 
 706           2134.498     -4             2138 
 707           2178.497     -4             2182 
 708           2170         -4             2173 
 709           2276.999     -4             2280 
 710           2201         -4             2204 
 711           2148.002     -4             2151 
 712           2199.5       -4             2203 
 713           2181.499     -4             2185 
 714           2148.998     -4             2152 
 715           2214         -4             2217 
 716           2298.999     -4             2302 
 717           2125.501     -4             2129 
 718           2377.001     -4             2380 
 719           2140.002     -4             2143 
 720           2293.001     -4             2296 
 721           2362.998     -4             2366 
 722           2330.996     -4             2334 
 723           2343.998     -4             2347 
 724           2279.499     -4             2283 
 725           2205.002     -4             2208 
 726           2280         -4             2283 
 727           2382.001     -4             2385 
 728           2371.999     -4             2375 
 729           2487.503     -4             2491 
 730           2509.498     -4             2513 
 731           2645.498     -4             2649 
 732           2631.5       -4             2635 
 733           2435.998     -4             2439 
 734           2684.498     -4             2688 
 735           2604.999     -4             2608 
 736           2608.499     -4             2612 
 737           2560.002     -4             2563 
 738           2661         -4             2664 
 739           1718.498     -4             1722 
 740           414.5001     -4             418 
